!FLC317MG-4 Fujitsu device.
!S-PARAMETERS
!V DS = 10V, I DS = 720mA
!FREQUENCY S11 S21 S12 S22
!(MHZ) MAG ANG MAG ANG MAG ANG MAG ANG
# MHz S MA R 50
500 .924 -159.1 6.908 99.0 .018 29.7 .416 -169.6
1000 .919 177.0 3.665 86.9 .020 34.4 .450 -171.2
1500 .910 162.1 2.612 80.1 .022 46.1 .484 -173.1
2000 .899 149.3 2.106 73.4 .023 54.3 .522 -174.6
2500 .885 136.4 1.898 67.2 .027 63.1 .555 -177.2
3000 .853 120.9 1.776 59.9 .031 57.3 .588 179.3
3500 .799 100.9 2.000 48.6 .035 65.0 .614 175.0
4000 .676 74.2 2.075 28.7 .043 49.0 .648 170.6
4500 .370 30.8 2.544 6.1 .048 20.2 .719 162.8
5000 .276 -178.7 2.403 -41.9 .039 -34.5 .803 147.6
5500 .739 121.7 1.520 -84.2 .022 -107.4 .800 129.9
6000 .885 89.2 .747 -103.9 .021 -163.4 .785 115.7